#   1 NUMBER          Running object number
#   2 X_IMAGE         Object position along x                         [pixel]
#   3 Y_IMAGE         Object position along y                         [pixel]
#   4 ALPHA_J2000     Right ascension of barycenter (J2000)           [deg]
#   5 DELTA_J2000     Declination of barycenter (J2000)               [deg]
#   6 FLAGS           Extraction flags
#   7 FLUX_RADIUS     Fraction-of-light radii                         [pixel]
#   8 MAG_AUTO        Kron-like elliptical aperture magnitude         [mag]
#   9 FWHM_IMAGE      FWHM assuming a gaussian core                   [pixel]
         1    500.414    100.888  36.8627922  -4.5670296   2      6.230  22.1443    14.31
         2    910.624     83.967  36.8415317  -4.5679142   0     11.480  22.7458    35.07
         3    498.600     69.513  36.8628870  -4.5686505   3      3.923  25.1891    11.38
         4     28.024     37.874  36.8872774  -4.5702725  18      8.552  21.5791    19.64
         5    591.815     28.990  36.8580567  -4.5707466   0      4.469  23.8619    13.07
         6    915.812     28.617  36.8412642  -4.5707740   0      4.065  24.6886     8.46
         7    441.105     15.641  36.8658683  -4.5714324  18      4.481  25.0417    12.78
         8    428.375     14.911  36.8665281  -4.5714697  19      3.844  24.6259     7.41
         9    419.490     30.482  36.8669882  -4.5706650   3      3.704  25.3128     8.34
        10    415.624     19.899  36.8671889  -4.5712117  19      4.235  24.3973     8.60
        11    655.339     19.693  36.8547646  -4.5712286   0      4.321  25.6641    11.84
        12    625.025      6.404  36.8563360  -4.5719144  24      4.350  22.6892     9.05
        13      6.881     10.169  36.8883740  -4.5717033  19      4.127  25.4002     6.96
        14      3.493      2.997  36.8885497  -4.5720738  27      3.064  25.8717    10.76
        15    893.532     10.543  36.8424194  -4.5717073   0      2.968  26.0061     5.18
        16    236.009     10.365  36.8764985  -4.5716995   0      3.291  26.2763     7.47
        17    666.458      6.679  36.8541886  -4.5719012  16      3.276  25.2207     6.71
        18     42.715      2.563  36.8865170  -4.5720973  24      2.734  25.9805     8.75
        19    728.116      2.061  36.8509930  -4.5721414  24      2.395  26.4143     6.94
        20    120.989      2.010  36.8824601  -4.5721280  24      2.267  26.9085     5.35
        21    595.417    977.749  36.8578460  -4.5217285   0      3.995  25.7663    10.48
        22    414.676    997.832  36.8672125  -4.5206862  24      2.725  24.2548    10.03
        23    365.092    998.603  36.8697822  -4.5206451  24      1.925  26.6701     4.83
        24    228.349    990.072  36.8768693  -4.5210822  24      4.562  22.2397     8.99
        25      5.513    998.305  36.8884176  -4.5206508  24      2.247  26.4319     8.31
        26     12.765    975.188  36.8880424  -4.5218453  16      2.840  24.5321     5.48
        27     96.854    975.534  36.8836845  -4.5218298   0      3.178  25.6823     6.36
        28    271.507    976.728  36.8746329  -4.5217728   0      2.577  26.7275     3.67
        29    522.949    973.681  36.8616018  -4.5219368   0      2.553  25.9130     5.12
        30    193.321    974.407  36.8786850  -4.5218906   0      2.828  26.0193     6.77
        31    951.421    971.113  36.8393958  -4.5220802   0      2.928  25.3940     5.31
        32    584.338    970.638  36.8584203  -4.5220956   0      3.093  26.0222     5.25
        33    284.447    968.885  36.8739625  -4.5221784   0      2.809  25.5436     5.58
        34    891.496    969.492  36.8425016  -4.5221624   0      3.780  25.9553     5.91
        35    134.959    970.245  36.8817098  -4.5221041   0      2.831  26.4467     7.26
        36    753.941    966.074  36.8496306  -4.5223357   0      2.775  26.0709     5.42
        37    241.925    941.752  36.8761670  -4.5235791   3      5.537  24.4806    10.52
        38    231.359    937.292  36.8767146  -4.5238092   3      3.203  25.1607     5.52
        39    239.346    964.120  36.8763000  -4.5224233   3      3.039  25.3103     6.54
        40    251.340    956.868  36.8756786  -4.5227983   3      5.174  23.3442    10.39
        41    464.167    965.121  36.8646484  -4.5223775   0      3.340  25.8510     6.01
        42    880.608    964.475  36.8430660  -4.5224214   0      3.516  26.1873     7.48
        43     37.997    964.490  36.8867351  -4.5223987   0      2.692  26.7134     4.00
        44    368.895    961.938  36.8695861  -4.5225395   0      3.020  25.6731     5.49
        45    121.943    960.867  36.8823846  -4.5225882   0      3.963  25.6736     7.86
        46    538.874    959.121  36.8607768  -4.5226894   0      2.662  26.0246     6.21
        47    300.896    959.946  36.8731103  -4.5226406   0      2.440  26.5334     5.26
        48    715.444    959.616  36.8516259  -4.5226684   0      3.142  26.3784     6.17
        49    280.145    958.460  36.8741857  -4.5227169   0      2.532  26.7285     4.11
        50    946.842    951.998  36.8396336  -4.5230676   0      3.241  25.9574     6.54
        51    269.538    952.793  36.8747356  -4.5230094   0      2.251  26.4539     5.29
        52    979.825    938.901  36.8379245  -4.5237451  18      5.136  24.1755    14.21
        53    985.636    930.591  36.8376236  -4.5241746  19      3.709  24.8997     8.97
        54    101.639    944.915  36.8834373  -4.5234118   3      3.607  25.8454     9.27
        55     95.579    942.058  36.8837514  -4.5235593   3      3.241  25.7965     6.85
        56    641.302    942.888  36.8554688  -4.5235308   0      2.269  26.7683     3.96
        57    760.826    934.464  36.8492745  -4.5239690   0      4.168  24.0362     6.95
        58    696.089    938.953  36.8526295  -4.5237355   0      3.672  25.7595    11.13
        59    459.723    938.070  36.8648794  -4.5237750   0      4.272  25.0105    13.40
        60    614.000    938.462  36.8568839  -4.5237587   0      2.518  26.0875     5.09
        61    905.978    901.263  36.8417527  -4.5256879   3      3.163  25.2386     6.23
        62    892.012    932.974  36.8424757  -4.5240492   3      4.223  25.0199    11.61
        63    888.645    917.338  36.8426506  -4.5248570   3      4.287  24.4817    10.80
        64    903.270    916.951  36.8418926  -4.5248773   3      4.864  24.2172    12.73
        65    792.847    933.617  36.8476150  -4.5240135   0      2.513  26.3672     5.69
        66    599.487    933.527  36.8576362  -4.5240134   0      2.732  26.6032     5.18
        67    170.657    930.793  36.8798608  -4.5241434   0      3.626  25.6454     7.21
        68    648.019    920.682  36.8551213  -4.5246782   0      5.177  23.4756    12.81
        69    221.867    929.365  36.8772068  -4.5242185   0      2.913  26.4023     7.31
        70     50.119    927.396  36.8861079  -4.5243156   0      3.310  25.4298     7.14
        71    578.482    929.493  36.8587249  -4.5242212   0      2.131  26.9426     3.93
        72    156.403    905.343  36.8806002  -4.5254578   2      4.915  21.7614     8.08
        73    177.694    903.744  36.8794968  -4.5255411   3      5.446  23.8715    12.28
        74     66.405    922.471  36.8852640  -4.5245705   0      4.340  24.4758    10.49
        75    276.495    925.501  36.8743758  -4.5244196   0      3.633  25.9002     6.01
        76    927.424    943.952  36.8406402  -4.5234829   0      3.480  25.7254     8.87
        77    416.506    920.612  36.8671197  -4.5246759   0      3.317  24.9225     6.64
        78    474.082    919.735  36.8641358  -4.5247227   0      3.364  26.2108     7.25
        79    306.381    913.064  36.8728272  -4.5250629   0      2.696  24.8462     5.30
        80    396.465    911.739  36.8681586  -4.5251338   0      2.991  25.6735     6.71
        81    121.042    913.474  36.8824326  -4.5250368   0      3.930  26.0290     8.65
        82    600.268    911.697  36.8575962  -4.5251412   0      2.947  26.2720     6.63
        83    210.519    910.460  36.8777954  -4.5251949   0      2.533  26.2769     5.63
        84    798.887    910.022  36.8473026  -4.5252328   0      3.217  26.1335     7.85
        85     25.997    904.017  36.8873587  -4.5255228   0      3.277  24.2330     5.96
        86      8.350    904.668  36.8882732  -4.5254886  16      3.454  24.8852     7.16
        87    502.875    903.333  36.8626440  -4.5255709   0      3.496  25.7003     8.53
        88    781.463    904.734  36.8482057  -4.5255055   0      3.533  26.0053     4.90
        89    642.017    900.704  36.8554328  -4.5257102   0      4.545  24.2015    13.45
        90    854.394    896.364  36.8444262  -4.5259397   0      2.758  22.4943     4.88
        91     61.425    895.835  36.8855228  -4.5259465   0      3.943  23.9595     9.23
        92    362.102    897.584  36.8699399  -4.5258642   0      2.438  26.6548     4.15
        93     39.885    894.727  36.8866392  -4.5260031   0      2.861  25.2175     6.07
        94    888.332    891.295  36.8426674  -4.5262025   0      3.268  24.6655     5.92
        95    489.195    889.420  36.8633533  -4.5262893   0      3.130  24.7662     5.86
        96    307.564    888.348  36.8727665  -4.5263399   0      2.634  25.0905     5.17
        97     25.081    883.732  36.8874067  -4.5265708   2      4.551  25.9281     7.93
        98    643.244    883.362  36.8553697  -4.5266063   0      3.701  24.6912     7.36
        99     92.631    881.156  36.8839059  -4.5267058   0      3.706  25.0603     8.10
       100    761.129    876.409  36.8492603  -4.5269684   0      3.375  23.7080     6.39
       101    998.052    874.342  36.8369815  -4.5270810  24      2.226  24.3308    11.66
       102    939.473    876.459  36.8400173  -4.5269702   0      2.733  25.6927     5.01
       103    874.536    876.502  36.8433828  -4.5269664   0      2.587  25.6678     4.92
       104    749.300    898.697  36.8498728  -4.5258166   0      2.798  23.9216     4.77
       105    237.186    913.323  36.8764133  -4.5250477   0      4.928  21.8539     9.10
       106    558.451    869.651  36.8597645  -4.5273125   0      4.416  24.6700    11.81
       107    648.128    869.998  36.8551169  -4.5272969   0      3.706  25.0548     6.04
       108    385.566    869.650  36.8687245  -4.5273081   0      3.593  24.8648     7.01
       109    980.219    866.623  36.8379059  -4.5274794   0      4.440  24.4673     8.03
       110    957.611    864.491  36.8390776  -4.5275890   3      4.962  23.4732    10.23
       111    942.482    857.196  36.8398619  -4.5279656   3      4.246  24.3328     7.41
       112    547.689    869.474  36.8603223  -4.5273213   1      2.844  26.2534     6.10
       113    334.126    869.974  36.8713904  -4.5272899   0      2.778  26.3999     5.97
       114    716.982    865.827  36.8515485  -4.5275141   3      2.981  24.8015     5.93
       115    705.559    861.970  36.8521407  -4.5277130   3      3.030  25.1689     6.10
       116    137.898    861.694  36.8815604  -4.5277125   0      5.138  23.8363    10.71
       117    451.079    863.818  36.8653294  -4.5276111   0      3.117  24.9427     6.03
       118     69.071    862.946  36.8851274  -4.5276459   0      3.246  24.8169     5.77
       119    851.349    860.685  36.8445849  -4.5277831   0      3.415  24.5751     6.53
       120    181.577    861.220  36.8792967  -4.5277382   0      4.819  25.0258     9.50
       121    169.920    863.110  36.8799008  -4.5276402   0      3.188  26.3342     7.24
       122    428.811    863.009  36.8664834  -4.5276523   0      2.425  26.8432     5.10
       123    528.036    858.159  36.8613411  -4.5279055   0      3.773  25.3521     8.27
       124    486.923    859.108  36.8634719  -4.5278553   0      2.614  26.3660     4.80
       125    896.359    855.451  36.8422523  -4.5280546   0      3.649  25.6861     6.60
       126    580.929    847.533  36.8586001  -4.5284558   0      4.288  23.7687     8.46
       127    830.801    847.428  36.8456502  -4.5284675   0      2.935  24.6629     5.49
       128    442.628    847.626  36.8657678  -4.5284474   0      3.783  24.6068     8.01
       129    683.860    845.445  36.8532656  -4.5285663   0      3.212  25.3997     6.30
       130     27.839    846.019  36.8872648  -4.5285193   0      3.512  25.4183     6.99
       131    535.034    838.386  36.8609790  -4.5289272   0      4.498  23.2296     7.40
       132    174.520    844.325  36.8796629  -4.5286108   0      2.981  26.0008     6.93
       133    698.088    840.808  36.8525284  -4.5288062   0      3.195  24.8498     5.95
       134    499.919    843.249  36.8627987  -4.5286750   0      2.066  26.6926     4.62
       135    321.669    838.998  36.8720369  -4.5288900   0      3.065  23.8567     5.34
       136      7.304    835.131  36.8883293  -4.5290813  19      3.516  24.9149     6.77
       137     18.504    833.295  36.8877489  -4.5291765   3      4.256  25.2289     5.52
       138     18.452    823.510  36.8877519  -4.5296820   3      3.391  24.5942     5.20
       139    281.129    832.091  36.8741381  -4.5292458   0      2.461  26.2542     5.39
       140    859.001    830.247  36.8441891  -4.5293559   0      4.213  25.4535     7.59
       141    406.741    827.664  36.8676282  -4.5294779   0      3.566  24.2790     7.24
       142    593.920    830.079  36.8579273  -4.5293579   0      4.260  25.9407     4.80
       143    348.981    827.614  36.8706217  -4.5294789   0      3.134  25.5174     6.17
       144    761.346    828.846  36.8492502  -4.5294258   0      3.027  26.2980     5.48
       145    712.898    827.877  36.8517611  -4.5294747   0      2.747  26.3990     6.09
       146    787.643    820.210  36.8478876  -4.5298726   0      4.942  23.3611    10.45
       147    220.317    821.125  36.8772900  -4.5298107   0      2.915  25.7282     5.91
       148    945.201    818.838  36.8397219  -4.5299474   0      3.328  24.9568     7.33
       149    615.431    810.537  36.8568130  -4.5303681   0      6.433  23.5732    19.80
       150    303.187    819.038  36.8729952  -4.5299208   0      3.426  25.2542     6.47
       151     72.021    815.270  36.8849758  -4.5301092   0      4.813  23.8728    13.53
       152    872.417    816.445  36.8434941  -4.5300693   0      2.897  24.9675     5.07
       153    375.867    812.093  36.8692287  -4.5302815   0      3.549  23.7356     5.86
       154    988.240    808.593  36.8374916  -4.5304778  18      5.919  23.2069    13.11
       155    997.332    795.388  36.8370206  -4.5311602  27      3.018  24.2863     6.44
       156    649.047    817.162  36.8550706  -4.5300267   0      2.558  26.6448     6.22
       157    899.750    811.611  36.8420776  -4.5303197   0      3.904  24.1820     7.90
       158    532.809    813.898  36.8610949  -4.5301923   0      2.888  25.7683     5.66
       159     36.029    813.734  36.8868412  -4.5301876   0      2.630  26.4922     5.39
       160    585.188    812.869  36.8583803  -4.5302469   0      4.978  25.5943     7.34
       161    729.809    808.840  36.8508852  -4.5304586   0      2.841  25.1000     5.82
       162    401.305    809.408  36.8679104  -4.5304209   0      2.665  26.1823     5.56
       163    558.735    807.513  36.8597514  -4.5305229   0      3.276  25.6157     5.26
       164    475.497    805.843  36.8640654  -4.5306070   3      2.834  24.7561     5.42
       165    468.312    798.472  36.8644379  -4.5309876   3      3.147  25.3603     6.29
       166    795.677    803.030  36.8474716  -4.5307605   0      4.366  24.1917     8.02
       167    236.168    806.127  36.8764689  -4.5305860   0      3.329  25.2252     6.74
       168    266.850    805.684  36.8748788  -4.5306098   0      2.896  26.0741     5.63
       169    437.477    791.607  36.8660362  -4.5313415   0      4.630  22.5431     7.28
       170    339.954    796.888  36.8710903  -4.5310662   0      4.397  25.3278    12.99
       171    186.007    799.285  36.8790688  -4.5309382   0      3.770  25.2676     6.35
       172    569.704    796.123  36.8591832  -4.5311116   3      6.425  24.0401     8.72
       173    580.964    789.419  36.8585998  -4.5314583   3      6.964  24.3642     6.55
       174    676.065    790.625  36.8536710  -4.5313984   2      3.994  23.5709     7.81
       175    663.425    784.671  36.8543262  -4.5317057   3      4.255  24.9016     8.64
       176    200.469    793.259  36.8783195  -4.5312499   0      2.856  24.8790     5.72
       177    634.077    791.601  36.8558471  -4.5313469   0      3.149  25.3274     5.07
       178    246.085    784.007  36.8759556  -4.5317292   0      3.207  23.9102     6.33
       179    356.867    788.117  36.8702140  -4.5315198   0      2.859  26.4609     6.75
       180    392.374    786.543  36.8683738  -4.5316020   0      2.223  26.6624     4.54
       181    952.116    780.667  36.8393644  -4.5319197   0      3.151  24.9429     6.57
       182    965.762    779.578  36.8386572  -4.5319763   0      3.560  25.1685     7.18
       183     74.997    771.513  36.8848228  -4.5323700   0      5.024  24.3603    12.37
       184    340.726    774.282  36.8710509  -4.5322341   0      2.733  26.2538     7.27
       185    515.835    768.799  36.8619758  -4.5325220   0      3.477  23.5567     6.47
       186    281.694    762.427  36.8741106  -4.5328451   0      6.774  22.7917    14.62
       187     10.394    768.612  36.8881710  -4.5325181  16      3.333  24.1427     6.02
       188    779.192    765.541  36.8483269  -4.5326969   0      3.312  24.1504     6.07
       189     38.852    763.602  36.8866963  -4.5327777   0      3.806  24.0492     6.46
       190    255.515    763.099  36.8754674  -4.5328097   0      4.766  25.6227     8.58
       191    198.433    760.875  36.8784258  -4.5329230   3      3.283  25.1499     6.37
       192    190.660    754.105  36.8788288  -4.5332725   3      4.358  25.2805     9.34
       193    794.905    760.714  36.8475127  -4.5329467   0      2.949  26.4563     6.53
       194    651.432    759.474  36.8549484  -4.5330072   0      3.391  25.5036     6.62
       195    150.596    753.409  36.8809052  -4.5333074   0      5.593  24.0195    12.47
       196    839.701    758.906  36.8451911  -4.5330412   0      3.494  25.9500     6.22
       197    463.407    756.745  36.8646932  -4.5331434   0      2.559  26.3954     8.20
       198    589.912    754.317  36.8581369  -4.5332721   0     12.511  23.7902     8.40
       199    721.905    752.931  36.8512962  -4.5333470   0      2.939  25.0938     6.30
       200    307.955    755.033  36.8727498  -4.5332278   0      3.815  25.7495     7.53
       201    957.434    751.149  36.8390895  -4.5334449   0      4.722  25.1568    13.18
       202    100.535    748.555  36.8834999  -4.5335569   3      3.958  23.0766     7.95
       203     91.277    735.592  36.8839800  -4.5342264   3      4.595  24.1369    13.54
       204    968.482    751.727  36.8385169  -4.5334153   0      4.303  25.9086     8.88
       205    615.538    762.623  36.8568086  -4.5328436   0      5.565  25.4470     6.98
       206    219.254    741.199  36.8773473  -4.5339401   0      4.822  23.2869    11.64
       207     30.350    743.122  36.8871375  -4.5338356   0      3.520  24.0203     7.13
       208    938.502    742.309  36.8400709  -4.5339012   0      2.950  25.3899     5.73
       209    194.561    739.035  36.8786271  -4.5340513   0      3.570  23.5477     6.80
       210    160.513    741.234  36.8803916  -4.5339367   0      4.477  25.4014     9.03
       211    343.946    729.407  36.8708852  -4.5345527   3      4.739  24.9457     9.79
       212    361.541    738.493  36.8699731  -4.5340837   3      3.589  24.9295     5.74
       213    354.855    731.302  36.8703198  -4.5344551   3      7.268  24.5243     8.41
       214    633.081    684.912  36.8559014  -4.5368590   3     10.980  22.4920    32.74
       215    583.489    678.479  36.8584717  -4.5371901   3     18.273  19.2991    14.99
       216    739.133    733.076  36.8504038  -4.5343733   0      2.442  26.4481     4.34
       217    687.930    726.361  36.8530577  -4.5347189   0      4.501  23.1585    10.39
       218    754.561    725.305  36.8496044  -4.5347752   0      3.424  25.2059     7.90
       219    539.252    725.013  36.8607632  -4.5347848   0      6.305  24.8678     5.67
       220    704.843    721.966  36.8521813  -4.5349464   0      2.642  25.3313     5.19
       221    285.110    718.143  36.8739348  -4.5351331   0      4.101  24.4533     9.99
       222    847.865    721.798  36.8447689  -4.5349587   0      2.480  26.5416     5.09
       223    995.113    720.672  36.8371374  -4.5350204  16      2.972  26.4589     6.42
       224    873.881    716.379  36.8434206  -4.5352393   0      2.648  25.4488     5.25
       225    482.383    709.479  36.8637110  -4.5355859   0      3.343  24.3578     7.06
       226    974.345    711.258  36.8382140  -4.5355063   0      2.498  25.3409     4.85
       227    928.394    712.027  36.8405955  -4.5354655   0      3.060  25.5146     5.71
       228    554.499    649.109  36.8599750  -4.5387069   3      4.094  22.9222     5.56
       229    149.210    711.859  36.8809782  -4.5354541   0      2.494  26.0798     4.81
       230     77.740    712.119  36.8846822  -4.5354387   0      3.785  25.7909     6.55
       231    237.742    710.980  36.8763899  -4.5355019   0      4.379  25.8228     9.20
       232     91.392    706.128  36.8839749  -4.5357486   0      2.948  23.0938     5.44
       233    986.567    707.601  36.8375807  -4.5356956   0      2.430  26.7007     4.72
       234    786.148    705.000  36.8479679  -4.5358250   0      3.881  25.7824     5.90
       235    413.252    702.473  36.8672940  -4.5359461   0      3.507  25.2733     7.12
       236    619.243    626.703  36.8566200  -4.5398661   3      5.429  21.0672     8.09
       237    359.629    703.993  36.8700731  -4.5358661   0      4.017  25.9831     5.47
       238    199.512    702.813  36.8783715  -4.5359228   0      3.061  26.2224     7.83
       239    248.633    699.337  36.8758258  -4.5361037   0      2.882  24.8074     5.44
       240    752.040    696.009  36.8497358  -4.5362887   0      3.177  25.3489     7.94
       241    882.550    690.146  36.8429720  -4.5365949   0      5.070  24.2357    12.77
       242    478.667    692.450  36.8639040  -4.5364656   0      2.919  24.8987     5.17
       243    600.682    612.473  36.8575824  -4.5406008   3      3.846  23.2152     5.33
       244    157.862    686.316  36.8805305  -4.5367740   0      4.254  23.8507     8.31
       245    731.881    691.435  36.8507807  -4.5365245   0      2.559  26.5937     5.01
       246    351.305    684.630  36.8705050  -4.5368663   0      4.061  23.0729     9.12
       247    494.344    687.030  36.8630916  -4.5367460   0      3.610  25.3694     9.96
       248    392.512    683.475  36.8683694  -4.5369271   3      3.472  25.2932     7.81
       249    400.005    676.651  36.8679812  -4.5372798   3      4.976  25.0235     8.61
       250    317.261    683.760  36.8722694  -4.5369104   3      3.520  25.6555     7.28
       251    317.902    669.647  36.8722366  -4.5376395   2      4.555  23.3993     8.81
       252    984.360    681.767  36.8376957  -4.5370302  16      3.338  24.7685     6.53
       253    721.026    684.195  36.8513435  -4.5368983   0      2.859  26.2796     7.18
       254     70.720    680.815  36.8850469  -4.5370559   0      2.903  25.2649     5.91
       255    707.311    679.276  36.8520544  -4.5371521   0      3.206  25.7896     7.63
       256    998.430    694.117  36.8369661  -4.5363925  24      3.941  26.1010     7.79
       257    997.376    679.026  36.8370212  -4.5371721  24      2.898  25.8139     6.54
       258    205.650    676.795  36.8780541  -4.5372672   0      2.567  26.2082     4.70
       259    741.573    668.842  36.8502790  -4.5376920   0      3.791  23.1499     9.00
       260    296.348    673.659  36.8733535  -4.5374317   0      2.716  26.3858     6.03
       261    759.555    671.942  36.8493469  -4.5375324   0      3.450  25.7656     8.71
       262    510.745    667.105  36.8622422  -4.5377759   0      3.667  24.3746    10.86
       263    469.039    666.533  36.8644037  -4.5378044   0      3.986  24.0525     8.47
       264    773.257    668.384  36.8486369  -4.5377165   0      2.487  25.7214     5.08
       265    634.871    735.197  36.8558074  -4.5342611   0      8.652  24.3072    12.26
       266    673.021    666.443  36.8538319  -4.5378143   0      5.315  24.9184     9.44
       267    337.684    665.739  36.8712115  -4.5378420   0      3.788  25.3868     7.31
       268    867.311    665.237  36.8437624  -4.5378814   0      2.559  26.7321     5.67
       269    393.648    657.834  36.8683112  -4.5382518   1      4.432  23.3462     8.82
       270    120.170    664.822  36.8824845  -4.5378835   0      2.441  26.6582     6.76
       271      9.202    652.979  36.8882360  -4.5384923  19      5.815  23.0043    13.91
       272     21.334    637.892  36.8876076  -4.5392721  19      5.674  23.3624    15.74
       273     90.725    659.067  36.8840107  -4.5381800   0      3.949  24.1936     7.45
       274     72.589    655.299  36.8849508  -4.5383742   0      4.713  24.2486    10.68
       275    777.832    656.456  36.8484000  -4.5383329   0      2.298  26.8322     4.35
       276    217.258    654.906  36.8774530  -4.5383984   0      3.214  26.3805     6.93
       277    408.440    648.143  36.8675448  -4.5387529   1      3.044  24.6495     5.09
       278    992.506    650.725  36.8372742  -4.5386342   0      2.207  26.8456     6.04
       279    374.808    642.366  36.8692880  -4.5390505   0      6.207  23.7815    17.60
       280    978.221    643.097  36.8380147  -4.5390280  18      4.385  24.9116    11.71
       281    971.091    634.461  36.8383845  -4.5394740   3      4.218  25.2903     6.41
       282    776.104    647.953  36.8484898  -4.5387721   0      3.219  26.3234     4.90
       283    815.094    647.075  36.8464691  -4.5388185   0      2.582  26.6011     4.79
       284    222.237    645.985  36.8771952  -4.5388595   0      3.294  25.8858     7.28
       285    417.892    635.712  36.8670553  -4.5393955   0      4.178  23.6667     8.77
       286    339.382    638.271  36.8711241  -4.5392612   0      3.415  25.4111     5.45
       287    242.377    632.875  36.8761518  -4.5395374   0      3.915  23.8301     9.33
       288     77.027    620.094  36.8847217  -4.5401932   3      3.961  25.4157     8.73
       289     97.231    636.349  36.8836742  -4.5393540   3      4.859  24.4219     9.08
       290     93.399    620.726  36.8838732  -4.5401610   3      3.078  22.8694     5.24
       291    841.962    734.258  36.8450745  -4.5343148   0      4.232  25.9015     5.96
       292    318.954    633.645  36.8721830  -4.5394996   0      7.092  25.0264     8.05
       293    839.260    634.022  36.8452170  -4.5394935   0      2.481  26.4146     4.45
       294    692.584    631.815  36.8528188  -4.5396039   0      2.756  26.1348     6.06
       295    955.765    631.093  36.8391789  -4.5396476   0      2.609  26.1855     5.49
       296    158.843    630.366  36.8804812  -4.5396647   0      2.573  25.6527     5.52
       297    815.811    617.350  36.8464327  -4.5403543   3      6.190  22.7592    12.22
       298    808.032    602.523  36.8468362  -4.5411201   3      3.846  22.6723     6.85
       299      5.628    627.632  36.8884219  -4.5398018  16      3.914  25.7476    10.50
       300    875.569    622.711  36.8433355  -4.5400788   0      4.420  24.3668    13.11
       301    326.290    603.951  36.8718036  -4.5410340   0      2.761  19.5431     4.68
       302    975.702    623.946  36.8381458  -4.5400174   0      3.855  25.8255     6.07
       303    729.505    626.022  36.8509055  -4.5399041   0      2.402  26.8309     5.58
       304    939.465    619.943  36.8400239  -4.5402233   0      3.454  24.8719     8.21
       305    533.010    621.762  36.8610894  -4.5401192   0      2.167  26.6513     4.88
       306    438.217    619.998  36.8660023  -4.5402079   0      2.977  25.6759     6.01
       307     46.715    617.751  36.8862927  -4.5403134   0      3.700  24.4896     8.37
       308    854.435    613.633  36.8444310  -4.5405472   0      5.992  24.0953    10.51
       309    167.930    618.721  36.8800105  -4.5402666   0      2.904  26.3404     7.58
       310    736.649    616.859  36.8505354  -4.5403777   0      2.857  26.4216     5.85
       311    145.953    609.804  36.8811498  -4.5407267   2      3.049  22.7698     5.34
       312    154.231    596.333  36.8807211  -4.5414230   3      4.119  24.7335     7.29
       313    691.189    611.913  36.8528916  -4.5406320   3      2.880  24.6647     6.03
       314    680.854    604.203  36.8534275  -4.5410301   2      4.003  22.8288     7.80
       315    300.751    612.916  36.8731270  -4.5405701   3      5.020  24.8119     6.97
       316    294.663    603.489  36.8734427  -4.5410570   3      5.859  24.1375    10.84
       317    981.545    610.704  36.8378433  -4.5407017   3      4.832  24.8890     7.01
       318    981.977    599.980  36.8378211  -4.5412558  19      5.579  23.8648    10.77
       319    927.414    611.020  36.8406487  -4.5406840   0      2.642  25.3987     5.01
       320    842.282    611.459  36.8450609  -4.5406593   0      6.081  25.5201     7.66
       321    888.651    608.805  36.8426578  -4.5407975   0      3.040  26.0905     5.95
       322    556.323    602.190  36.8598816  -4.5411310   0      4.537  23.9989     9.22
       323    187.595    575.705  36.8789925  -4.5424896   3      4.180  23.2276     8.15
       324    189.431    594.396  36.8788969  -4.5415240   3      2.804  20.6382     4.78
       325    210.426    586.039  36.8778090  -4.5419563   3      2.708  19.3100     4.59
       326    780.190    599.721  36.8482793  -4.5412642   0      3.509  24.4701     7.33
       327    752.383    603.632  36.8497203  -4.5410614   0      2.088  26.9169     4.63
       328     68.247    600.748  36.8851773  -4.5411925   0      2.753  25.3395     5.60
       329    645.123    596.801  36.8552795  -4.5414116   2      3.487  23.8975     5.68
       330    635.660    598.253  36.8557699  -4.5413364   3      2.697  25.2967     5.30
       331    929.084    599.472  36.8405625  -4.5412807   0      2.987  25.7630     5.28
       332    739.628    598.271  36.8503815  -4.5413381   0      3.384  25.7548     8.80
       333    600.764    596.206  36.8575785  -4.5414413   1      6.741  24.7202     7.32
       334    585.031    590.571  36.8583941  -4.5417320   0      5.016  23.6360     7.08
       335    914.572    586.786  36.8413149  -4.5419358   0      3.453  23.5540     6.59
       336    980.639    585.787  36.8378908  -4.5419890   1      5.808  25.0046     6.46
       337    411.850    584.980  36.8673697  -4.5420164   0      2.600  25.4675     5.28
       338    129.822    558.766  36.8819872  -4.5433632   3      3.858  25.4793    13.60
       339    142.709    582.750  36.8813186  -4.5421244   3      3.961  24.5180     8.71
       340    133.610    573.328  36.8817904  -4.5426110   3      5.106  23.2592    11.66
       341    941.050    582.960  36.8399427  -4.5421341   0      2.796  24.9413     5.42
       342    711.782    564.205  36.8518256  -4.5430974   3      9.306  21.6264    41.18
       343    636.533    573.576  36.8557253  -4.5426114   3      3.918  23.0771     6.97
       344    655.651    553.133  36.8547350  -4.5436681   3     10.794  19.5454    19.84
       345    759.904    580.392  36.8493311  -4.5422623   0      3.363  24.6652     6.70
       346    506.986    577.389  36.8624393  -4.5424110   3      3.637  23.4745     6.08
       347    496.162    567.673  36.8630005  -4.5429128   3     11.412  23.6468    27.73
       348    281.806    578.277  36.8741097  -4.5423592   2      3.154  24.8248     6.22
       349    272.501    580.022  36.8745919  -4.5422688   3      4.153  25.8463     6.29
       350     40.082    573.981  36.8866377  -4.5425746   3      3.787  24.4073     7.72
       351     37.110    558.883  36.8867922  -4.5433546   2      5.093  24.0710    20.39
       352    968.062    572.787  36.8385430  -4.5426603   3      3.479  25.7521     8.47
       353    839.219    574.081  36.8452206  -4.5425903   3      5.413  24.7321    17.22
       354    827.327    567.415  36.8458371  -4.5429345   2      3.221  23.2106     5.30
       355    992.712    575.509  36.8372654  -4.5425203  16      3.370  25.9007     5.41
       356    559.600    564.446  36.8597128  -4.5430811   3      4.015  21.4496     6.76
       357    576.361    499.267  36.8588457  -4.5464491   3      8.629  22.1963    33.11
       358    590.842    563.173  36.8580936  -4.5431477   3      4.824  23.3520     9.42
       359    596.973    550.632  36.8577762  -4.5437958   3      4.956  21.8724     9.56
       360    584.996    531.766  36.8583974  -4.5447702   3      5.266  20.8070     6.81
       361    567.862    534.536  36.8592853  -4.5446267   3      4.393  22.1389     7.26
       362    947.573    568.405  36.8396050  -4.5428862   0      3.139  25.7295     6.88
       363    314.822    558.734  36.8723991  -4.5433698   0      6.526  23.9776    22.77
       364    746.155    564.398  36.8500441  -4.5430883   3      4.510  25.2408    12.09
       365    156.002    559.324  36.8806303  -4.5433351   0      5.010  22.8317    12.72
       366    916.274    559.502  36.8412273  -4.5433455   0      3.539  23.6741     6.60
       367    878.725    568.496  36.8431732  -4.5428799   0      2.259  26.7489     4.76
       368    400.378    560.260  36.8679650  -4.5432933   0      4.553  24.3694    16.43
       369    291.734    566.126  36.8735955  -4.5429873   0      2.839  26.3954     7.61
       370    228.293    561.572  36.8768836  -4.5432209   1      5.463  25.0480    15.07
       371    465.136    546.846  36.8646090  -4.5439880   0      5.811  23.1384    11.00
       372    386.889    562.470  36.8686640  -4.5431787   1      3.975  25.5535     5.51
       373    240.123    562.176  36.8762705  -4.5431900   0      2.856  25.7865     5.51
       374    275.246    555.202  36.8744504  -4.5435513   0      3.842  23.7079     7.86
       375    978.617    570.919  36.8379960  -4.5427571  19      5.970  24.2248    11.35
       376    781.400    554.687  36.8482177  -4.5435909   0      2.459  25.8457     5.38
       377    101.253    551.515  36.8834680  -4.5437370   0      4.257  24.3794    10.56
       378    490.945    551.049  36.8632713  -4.5437715   0      3.126  24.9583     5.83
       379    885.698    550.580  36.8428122  -4.5438057   0      2.866  26.3470     5.32
       380    186.915    541.312  36.8790287  -4.5442665   0      2.668  23.3514     4.80
       381    545.949    543.740  36.8604208  -4.5441506   0      2.961  26.2685     5.99
       382    391.247    542.856  36.8684386  -4.5441922   0      3.013  25.2971     6.48
       383    867.661    514.062  36.8437480  -4.5456920   3      5.632  23.5595    13.15
       384    868.981    539.017  36.8436789  -4.5444027   3      3.307  25.7980     4.97
       385    872.665    530.855  36.8434882  -4.5448245   3      3.969  24.5629     5.57
       386    736.361    566.463  36.8505516  -4.5429814   3      2.826  25.0116     4.56
       387    104.640    537.095  36.8832929  -4.5444821   0      2.522  26.4979     4.19
       388     57.001    537.531  36.8857619  -4.5444583   0      3.478  26.2518     6.85
       389    696.092    533.083  36.8526395  -4.5447050   0      3.052  24.6985     6.31
       390    928.206    532.058  36.8406096  -4.5447637   0      2.264  26.5678     5.04
       391    815.344    529.678  36.8464591  -4.5448839   0      2.348  26.2192     5.40
       392    323.613    529.561  36.8719443  -4.5448773   0      2.776  26.5453     5.57
       393    257.724    527.030  36.8753592  -4.5450063   0      2.861  26.1774     6.91
       394     80.818    527.131  36.8845278  -4.5449963   0      2.862  26.0393     6.37
       395    909.641    523.185  36.8415720  -4.5452217   0      3.311  24.5862     6.15
       396    451.965    527.284  36.8652922  -4.5449983   0      2.750  26.4187     4.01
       397    215.272    524.655  36.8775594  -4.5451279   0      2.835  25.1434     5.63
       398    760.104    520.886  36.8493222  -4.5453367   0      3.372  23.8459     5.63
       399     31.071    525.089  36.8871061  -4.5451004   0      2.874  26.4315     7.14
       400    832.663    522.862  36.8455616  -4.5452365   0      2.474  26.4770     4.42
       401    739.689    511.041  36.8503805  -4.5458449   0      6.260  23.0614    19.53
       402    436.862    519.886  36.8660751  -4.5453802   0      3.433  24.8667     8.52
       403    184.928    513.178  36.8791324  -4.5457200   0      5.018  22.2162     9.28
       404    113.010    523.993  36.8828594  -4.5451593   0      2.408  26.8981     4.79
       405    475.038    521.775  36.8640965  -4.5452836   0      2.986  26.3517     7.43
       406    649.036    517.671  36.8550787  -4.5455001   0      4.277  25.4982     6.58
       407     44.138    516.391  36.8864291  -4.5455502   0      2.723  25.2701     5.64
       408    979.172    517.633  36.8379685  -4.5455102   0      2.433  26.2548     5.39
       409    412.620    515.808  36.8673316  -4.5455902   2      3.425  26.0184     7.67
       410    848.682    508.304  36.8447317  -4.5459890   0      2.638  23.5434     4.64
       411    360.503    507.369  36.8700329  -4.5460248   0      3.763  25.0522     7.45
       412    156.435    508.716  36.8806092  -4.5459498   0      2.978  25.9446     6.74
       413    238.592    499.723  36.8763515  -4.5464166   0      2.715  21.0850     4.63
       414      6.955    507.759  36.8883564  -4.5459951  16      3.435  25.3691     6.66
       415    917.873    504.134  36.8411458  -4.5462062   0      4.903  25.0669    14.14
       416    988.387    504.649  36.8374912  -4.5461812  16      3.680  25.5709     6.63
       417    931.456    504.085  36.8404418  -4.5462090   0      3.416  25.6396     7.06
       418    425.666    502.558  36.8666558  -4.5462752   0      2.919  25.3236     5.87
       419    965.100    499.217  36.8386982  -4.5464614   0      3.710  24.2824     8.45
       420    324.164    500.604  36.8719165  -4.5463734   0      3.370  25.3568     6.76
       421     95.962    500.207  36.8837436  -4.5463877   0      2.757  24.6840     5.25
       422    531.507    499.009  36.8611704  -4.5464612   0      5.258  24.5239    16.65
       423    662.173    478.475  36.8543988  -4.5475255   2      4.934  20.2630     6.14
       424    779.168    494.598  36.8483348  -4.5466954   2      4.016  24.7260     6.97
       425    769.883    497.412  36.8488160  -4.5465498   3      3.926  25.7245     5.97
       426    952.839    492.356  36.8393339  -4.5468155   1      3.173  26.0427    10.92
       427    852.152    490.171  36.8445523  -4.5469260   1      5.627  25.1511    13.29
       428    604.398    488.507  36.8573929  -4.5470057   2      7.772  23.7259     8.21
       429    613.825    484.702  36.8569044  -4.5472025   3      7.661  24.6574     6.64
       430    340.617    491.360  36.8710640  -4.5468514   0      2.929  25.5910     5.57
       431    506.881    489.030  36.8624470  -4.5469762   0      3.183  26.3322     6.93
       432    837.729    484.643  36.8453000  -4.5472112   2      3.346  24.3438     6.74
       433    846.266    472.796  36.8448578  -4.5478235   3      4.239  25.6403     7.04
       434     72.491    487.232  36.8849604  -4.5470575   0      3.274  25.9261     8.26
       435    254.222    485.461  36.8755418  -4.5471539   0      3.061  25.4585     5.32
       436    766.492    482.258  36.8489921  -4.5473327   0      3.470  24.8799     7.01
       437    394.402    481.365  36.8682767  -4.5473692   0      2.860  24.5112     5.43
       438    283.168    477.455  36.8740418  -4.5475683   2      4.931  23.7697    12.30
       439    272.910    468.146  36.8745737  -4.5480490   3      4.084  25.5557     9.09
       440    857.609    469.860  36.8442700  -4.5479755   3      3.711  24.9855     5.24
       441    883.903    481.561  36.8429070  -4.5473716   3      4.074  24.7724     7.40
       442    869.623    477.436  36.8436472  -4.5475843   3      4.777  24.0185     8.81
       443    897.324    472.915  36.8422116  -4.5478186   3      5.837  23.7210    15.64
       444    880.894    461.231  36.8430634  -4.5484219   3      4.756  21.8661     7.72
       445     35.022    477.284  36.8869026  -4.5475704   0      3.498  22.3783     7.78
       446    913.598    482.897  36.8413679  -4.5473033   1      5.574  25.5018    11.44
       447    514.718    472.209  36.8620412  -4.5478454   0      3.188  22.6478     5.89
       448    919.879    476.177  36.8410425  -4.5476506   0      3.476  26.2429     7.83
       449    345.946    454.676  36.8707888  -4.5487469   0      4.468  20.8765     8.15
       450    794.335    484.318  36.8475490  -4.5472269   0      3.079  26.0382     5.95
       451    825.394    473.601  36.8459396  -4.5477814   0      2.318  26.8228     5.52
       452    372.824    470.712  36.8693953  -4.5479191   0      3.250  25.6579     7.74
       453    807.082    465.330  36.8468888  -4.5482083   0      3.768  24.3966    10.45
       454    411.965    466.078  36.8673669  -4.5481595   3      2.778  25.4795     5.64
       455    416.794    458.378  36.8671168  -4.5485575   3      2.517  25.2473     4.99
       456     66.202    461.622  36.8852871  -4.5483805   0      3.285  25.3456     6.36
       457    605.023    454.663  36.8573614  -4.5487543   2      3.820  23.0989     5.47
       458    581.167    456.686  36.8585978  -4.5486492   3      6.066  24.1709     8.38
       459    586.407    446.107  36.8583264  -4.5491959   3      4.245  24.1318     8.29
       460    768.824    459.470  36.8488718  -4.5485100   0      2.661  25.2283     5.21
       461     42.645    459.233  36.8865080  -4.5485032   0      2.591  25.8642     5.00
       462    564.618    455.711  36.8594555  -4.5486991   0      3.323  24.5425     5.38
       463    526.495    457.989  36.8614312  -4.5485805   0      2.920  26.2613     4.70
       464     96.386    456.425  36.8837229  -4.5486498   0      2.968  25.6433     7.61
       465     73.751    452.147  36.8848961  -4.5488702   0      3.514  24.8672     7.04
       466    219.191    447.264  36.8773584  -4.5491264   3      3.582  24.2513     6.93
       467    229.691    434.416  36.8768146  -4.5497905   2      4.073  23.4985     8.43
       468    791.001    450.002  36.8477226  -4.5489998   0      4.080  25.7491     6.90
       469    805.687    497.703  36.8469604  -4.5465356   0      2.341  26.2546     5.43
       470    238.888    478.916  36.8763367  -4.5474916   0      3.384  26.1477     4.99
       471    446.257    429.336  36.8655906  -4.5500587   3      7.860  23.2040    24.37
       472    477.665    437.321  36.8639625  -4.5496470   3      2.709  21.4806     4.61
       473    461.763    431.655  36.8647868  -4.5499393   3      5.108  23.8382    13.77
       474    909.447    445.223  36.8415839  -4.5492496   0      3.130  24.9899     6.33
       475    746.632    445.505  36.8500223  -4.5492310   0      2.760  25.1224     5.60
       476    122.846    441.618  36.8823519  -4.5494155   0      2.981  25.5477     6.53
       477    981.278    435.751  36.8378613  -4.5497408  16      3.375  24.4170     8.07
       478    319.949    438.143  36.8721366  -4.5496004   0      3.357  25.9481     9.39
       479    674.723    437.357  36.8537494  -4.5496502   0      4.676  25.3946     8.09
       480    504.030    438.498  36.8625961  -4.5495869   0      2.775  26.2187     6.56
       481    952.373    432.192  36.8393595  -4.5499239   0      2.979  24.7256     5.97
       482    289.173    427.258  36.8737319  -4.5501619   0      3.621  24.0871     7.16
       483    797.352    429.315  36.8473940  -4.5500688   0      3.191  25.3893     7.06
       484    920.859    450.916  36.8409923  -4.5489558   0      3.733  26.2085     6.13
       485    817.727    428.519  36.8463380  -4.5501104   0      2.523  26.7161     6.07
       486     77.374    425.145  36.8847091  -4.5502654   0      3.044  25.1116     6.14
       487    759.460    422.596  36.8493580  -4.5504150   0      3.588  25.9297    10.56
       488    724.432    423.387  36.8511734  -4.5503732   0      2.420  26.5358     4.89
       489    641.453    420.515  36.8554742  -4.5505195   2      7.965  24.8415    13.01
       490    643.858    412.526  36.8553497  -4.5509323   3      2.898  26.1859     5.90
       491    961.980    420.347  36.8388619  -4.5505361   0      2.461  26.0684     5.06
       492    674.381    415.055  36.8537677  -4.5508024   0      3.778  23.4591     6.56
       493    548.750    421.065  36.8602788  -4.5504887   0      3.887  26.0472     4.77
       494    491.988    418.154  36.8632207  -4.5506377   0      3.092  25.0040     5.23
       495    976.001    415.147  36.8381353  -4.5508051   0      3.068  24.9653     6.12
       496    710.733    472.301  36.8518822  -4.5478457   3      8.200  22.0641    31.29
       497    897.899    403.819  36.8421835  -4.5513885   0      8.539  22.1403    19.50
       498    380.532    413.142  36.8689973  -4.5508937   0      2.751  26.3448     5.54
       499    160.944    410.858  36.8803782  -4.5510058   0      3.163  25.2875     6.93
       500     69.266    412.383  36.8851296  -4.5509245   0      2.370  26.2147     4.56
       501    805.999    412.472  36.8469463  -4.5509392   0      2.281  26.9047     5.58
       502    734.968    410.235  36.8506277  -4.5510530   0      3.627  25.6367     7.24
       503    212.380    408.460  36.8777124  -4.5511311   3      3.501  24.7705     7.80
       504    206.520    400.037  36.8780164  -4.5515661   3      3.524  24.9465     7.34
       505    127.862    382.103  36.8820935  -4.5524905   3      4.387  24.2987    12.02
       506    113.406    406.381  36.8828421  -4.5512358   3      3.301  23.6965     5.62
       507    122.100    399.025  36.8823917  -4.5516161   3      5.184  24.3556     9.61
       508      5.402    410.770  36.8884396  -4.5510061  16      2.297  26.6385     6.48
       509    940.309    401.159  36.8399855  -4.5515270   2      4.818  25.2491     7.03
       510    778.675    403.443  36.8483626  -4.5514050   0      3.670  25.6737     7.73
       511    439.023    399.089  36.8659663  -4.5516213   0      6.803  24.1162    16.35
       512    359.910    400.269  36.8700665  -4.5515582   0      3.708  25.0066     6.98
       513    321.297    394.424  36.8720679  -4.5518592   0      3.604  24.5610    12.11
       514    268.529    400.999  36.8748026  -4.5515181   0      2.696  26.0498     5.06
       515    871.605    399.547  36.8435463  -4.5516086   1      4.069  25.4926     6.79
       516    750.329    390.128  36.8498321  -4.5520922   0      5.260  21.6334    12.35
       517    253.939    395.114  36.8755589  -4.5518217   0      3.319  24.3694     5.66
       518    419.228    395.546  36.8669923  -4.5518038   0      6.387  24.9218    11.38
       519    855.608    389.986  36.8443757  -4.5521022   0      4.524  22.5471    10.71
       520     98.321    400.960  36.8836241  -4.5515155   0      4.147  25.9179     8.47
       521    807.724    395.514  36.8468573  -4.5518154   0      1.988  26.9466     5.31
       522    592.277    391.071  36.8580236  -4.5520395   0      2.496  24.8879     4.88
       523    545.898    390.320  36.8604274  -4.5520771   0      3.106  24.5714     5.73
       524    458.863    392.662  36.8649382  -4.5519538   0      3.784  25.9012     5.79
       525    361.208    386.102  36.8699996  -4.5522902   0      4.443  25.2219    12.09
       526     67.520    387.337  36.8852208  -4.5522185   0      2.926  25.9165     6.38
       527    938.813    385.997  36.8400634  -4.5523103   0      2.221  26.9230     4.30
       528    616.131    384.092  36.8567875  -4.5524007   0      2.844  26.1165     8.15
       529    339.213    381.258  36.8711397  -4.5525399   0      4.579  24.8939     6.34
       530    250.902    381.874  36.8757167  -4.5525057   0      2.824  25.9684     5.39
       531    501.177    376.417  36.8627455  -4.5527942   0      3.383  25.5125     8.53
       532    474.702    375.521  36.8641177  -4.5528399   0      3.258  25.0125     6.60
       533    419.573    376.329  36.8669749  -4.5527966   0      4.007  25.4311     7.33
       534    408.228    379.240  36.8675628  -4.5526459   0      2.292  26.6678     5.93
       535    525.288    371.269  36.8614961  -4.5530609   0      3.710  24.5569     7.57
       536    857.237    370.877  36.8442917  -4.5530895   0      2.760  24.9377     4.89
       537    784.119    371.063  36.8480813  -4.5530781   3      3.013  25.2898     6.31
       538    792.288    366.022  36.8476580  -4.5533387   3      3.381  25.7260     6.32
       539     23.237    373.315  36.8875163  -4.5529417   0      2.480  26.5376     6.24
       540    556.022    371.480  36.8599031  -4.5530507   0      2.608  26.1551     5.28
       541    337.303    367.937  36.8712390  -4.5532281   0      4.380  25.8689    10.00
       542    433.076    363.030  36.8662754  -4.5534841   0      3.062  24.4914     5.80
       543    788.115    358.332  36.8478745  -4.5537359   3      2.781  26.2741     6.95
       544    374.467    359.331  36.8693131  -4.5536737   0      4.122  24.2095     8.93
       545    655.046    362.792  36.8547711  -4.5535021   0      2.388  26.2259     5.03
       546    136.744    360.606  36.8816338  -4.5536014   0      2.974  24.4507     5.55
       547    886.728    360.635  36.8427635  -4.5536193   0      2.478  25.6315     5.18
       548    819.472    361.616  36.8462492  -4.5535670   0      2.848  26.1518     5.11
       549    203.312    358.910  36.8781838  -4.5536909   0      2.592  26.5659     4.84
       550     18.881    353.353  36.8877426  -4.5539729  16      3.873  24.2975     8.49
       551    276.502    356.136  36.8743905  -4.5538361   0      2.664  25.9170     5.50
       552     63.664    349.645  36.8854217  -4.5541657   0      4.255  22.2557     8.13
       553    539.383    353.218  36.8607660  -4.5539938   0      3.589  25.9216     6.95
       554    525.049    351.487  36.8615089  -4.5540829   0      2.833  24.7374     5.20
       555    902.208    352.967  36.8419613  -4.5540159   0      2.542  26.5498     5.37
       556    821.284    350.701  36.8461556  -4.5541310   0      2.605  26.2348     6.10
       557    931.869    326.265  36.8404247  -4.5553962   3      4.394  24.7161     8.27
       558    942.054    326.067  36.8398969  -4.5554067   3      5.134  24.9653     7.58
       559    947.570    345.493  36.8396105  -4.5544032   3      4.448  23.8976    11.58
       560    948.638    335.357  36.8395554  -4.5549269   3      2.906  24.2499     4.89
       561    750.382    353.346  36.8498303  -4.5539926   0      3.498  26.0497    10.98
       562    622.510    347.002  36.8564578  -4.5543171   0      2.478  26.4081     5.34
       563    337.978    345.511  36.8712046  -4.5543867   0      2.750  26.2593     5.42
       564    142.284    343.138  36.8813471  -4.5545041   0      2.720  25.5255     5.77
       565    970.925    339.470  36.8384002  -4.5547149   0      2.949  24.4445     5.18
       566    486.173    341.940  36.8635241  -4.5545751   2      3.282  25.9226     7.90
       567    485.101    335.609  36.8635798  -4.5549022   3      2.743  26.3461     6.06
       568    370.194    334.162  36.8695352  -4.5549740   0      4.960  24.1515    13.25
       569    158.286    332.860  36.8805180  -4.5550355   0      4.243  25.1033     9.43
       570    998.654    332.336  36.8369632  -4.5550842  24      2.835  26.0586     6.62
       571    216.310    327.686  36.8775109  -4.5553044   0      5.383  23.8623    12.98
       572    857.522    333.505  36.8442779  -4.5550203   0      2.343  26.5514     5.45
       573    126.787    332.703  36.8821506  -4.5550428   0      2.580  26.6671     4.45
       574    408.408    326.021  36.8675549  -4.5553956   0      2.752  25.2647     5.31
       575    337.208    326.242  36.8712450  -4.5553823   0      3.049  25.8459     6.46
       576    758.903    326.554  36.8493893  -4.5553770   0      2.329  26.6743     5.46
       577     93.821    321.404  36.8838595  -4.5556257   0      3.560  23.1628     6.42
       578    812.095    324.526  36.8466325  -4.5554831   1      3.178  25.7605     6.18
       579    705.245    312.744  36.8521707  -4.5560892   0      5.949  23.2388    12.39
       580    726.798    319.966  36.8510534  -4.5557166   0      3.484  24.5455     6.72
       581    678.609    323.018  36.8535509  -4.5555577   0      2.833  26.0320     6.75
       582    551.060    323.405  36.8601615  -4.5555344   0      3.718  26.0580     5.58
       583    290.133    323.889  36.8736849  -4.5555026   0      2.992  26.6510     4.21
       584    343.944    338.891  36.8708956  -4.5547289   0      3.196  26.1197     5.37
       585    910.635    330.738  36.8415252  -4.5551646   0      3.660  24.5936     7.59
       586    951.666    315.727  36.8393990  -4.5559412   0      5.361  25.5938     9.12
       587    848.275    310.810  36.8447577  -4.5561926   0      3.435  23.7496     6.44
       588    812.324    312.204  36.8466209  -4.5561198   3      4.625  24.5232    10.15
       589    819.994    296.410  36.8462238  -4.5569360   2      4.584  23.0609    12.79
       590    526.027    302.679  36.8614595  -4.5566046   0      5.159  22.2681    11.85
       591    107.784    307.242  36.8831362  -4.5563577   0      3.124  23.4908     5.64
       592    784.953    306.192  36.8480397  -4.5564297   3      3.327  24.4061     6.13
       593    786.422    295.405  36.8479638  -4.5569870   3      3.578  24.1419     6.50
       594    756.073    307.766  36.8495364  -4.5563476   0      2.816  25.2725     5.02
       595    956.753    306.528  36.8391355  -4.5564165   0      5.358  25.0143     6.91
       596    658.712    306.506  36.8545825  -4.5564103   0      2.998  25.0373     6.17
       597    339.616    307.252  36.8711207  -4.5563634   0      2.867  25.2266     6.02
       598    161.326    299.386  36.8803614  -4.5567651   0      2.746  21.4561     4.77
       599    727.036    306.478  36.8510414  -4.5564134   0      2.773  25.4793     5.25
       600    205.458    299.654  36.8780741  -4.5567524   3      6.109  24.1883    11.18
       601    210.410    284.948  36.8778179  -4.5575123   3      5.911  22.4565     9.63
       602    560.544    279.341  36.8596711  -4.5578112   3      5.714  20.6428     6.74
       603    583.590    272.555  36.8584769  -4.5581625   3      5.185  21.0677     7.04
       604    588.966    253.055  36.8581987  -4.5591701   3      3.572  21.3387     5.69
       605    280.430    299.718  36.8741885  -4.5567511   0      3.948  25.4591     8.27
       606    912.574    298.487  36.8414254  -4.5568309   0      2.815  26.0535     4.60
       607    841.510    293.916  36.8451087  -4.5570653   1      3.668  24.4710     7.41
       608    599.473    335.850  36.8576520  -4.5548927   0      2.275  26.5142     5.17
       609    473.422    296.940  36.8641861  -4.5568998   0      2.523  26.3856     5.32
       610    303.626    295.618  36.8729864  -4.5569636   3      3.910  25.5681     7.66
       611    300.248    288.393  36.8731616  -4.5573368   3      4.646  25.2266    13.13
       612    869.743    290.063  36.8436455  -4.5572651   0      4.496  23.2706    11.01
       613    597.352    294.943  36.8577630  -4.5570061   1      5.100  25.4103     6.01
       614    464.893    290.243  36.8646283  -4.5572455   0      5.180  24.9411    14.57
       615      9.641    263.453  36.8882239  -4.5586174  19      2.915  22.4863     4.98
       616     12.750    240.769  36.8880634  -4.5597894  19      6.617  22.3385    13.88
       617    762.879    291.696  36.8491841  -4.5571781   0      2.710  26.4906     5.40
       618    427.997    290.001  36.8665406  -4.5572571   0      2.751  25.4009     5.75
       619    501.996    289.286  36.8627053  -4.5572960   0      3.042  26.2437     4.73
       620    643.474    280.632  36.8553729  -4.5577467   2      5.862  21.6762    14.55
       621    634.694    264.664  36.8558284  -4.5585715   3      2.785  23.8647     4.71
       622    971.819    281.815  36.8383553  -4.5576937   3      3.386  24.2702     6.61
       623    980.478    275.531  36.8379066  -4.5580186  19      4.197  23.5641     8.91
       624     43.620    272.861  36.8864626  -4.5581322   3      5.011  21.0294     6.62
       625    910.919    278.780  36.8415117  -4.5578490   0      4.666  24.9691    14.62
       626    342.140    277.249  36.8709907  -4.5579136   0      3.399  24.5030     6.33
       627    896.335    276.273  36.8422676  -4.5579782   0      3.330  25.2783     6.41
       628    366.378    272.086  36.8697346  -4.5581810   0      3.496  25.9498     8.04
       629    221.540    269.721  36.8772414  -4.5582994   1      3.306  25.7777     7.47
       630    868.614    268.223  36.8437045  -4.5583934   0      3.832  25.9357     7.15
       631    715.553    266.232  36.8516375  -4.5584925   3      3.704  25.4601     8.12
       632    717.704    255.179  36.8515264  -4.5590636   2      3.263  24.0571     5.85
       633    264.919    264.784  36.8749933  -4.5585556   0      3.170  25.3016     7.40
       634    798.637    266.156  36.8473314  -4.5584985   0      2.331  26.5390     4.89
       635    739.911    262.851  36.8503752  -4.5586678   0      3.626  25.1725     7.81
       636    187.430    265.903  36.8790094  -4.5584957   0      2.806  26.3031     6.76
       637    821.647    264.362  36.8461389  -4.5585918   0      2.673  26.2911     5.18
       638    292.883    262.291  36.8735440  -4.5586851   0      3.276  25.2907     6.28
       639    783.069    258.540  36.8481385  -4.5588916   3      3.474  24.2651     6.11
       640    770.755    255.547  36.8487768  -4.5590459   3      2.776  24.9328     5.03
       641    964.801    257.047  36.8387196  -4.5589732   0      3.068  25.3940     6.41
       642    942.780    253.941  36.8398610  -4.5591332   0      3.559  25.3741     6.77
       643    756.802    248.953  36.8495001  -4.5593863   0      3.248  25.5600     6.85
       644    281.551    247.425  36.8741317  -4.5594529   0      2.883  25.4752     6.26
       645    407.849    244.253  36.8675860  -4.5596201   0      3.694  24.3685     7.21
       646    816.778    245.931  36.8463917  -4.5595439   0      2.813  26.5668     6.45
       647    484.407    242.324  36.8636181  -4.5597218   0      3.655  24.6232     6.29
       648    457.642    251.706  36.8650051  -4.5592364   0      2.961  24.5455     5.41
       649    327.345    244.646  36.8717584  -4.5595977   0      3.500  26.1347     6.58
       650    701.118    243.304  36.8523863  -4.5596767   0      3.265  26.3721     7.39
       651     60.018    234.919  36.8856138  -4.5600930   0      4.821  22.2395     8.86
       652     89.380    239.214  36.8840919  -4.5598719   0      2.885  24.0301     5.19
       653    263.382    239.259  36.8750737  -4.5598743   0      3.345  25.0605     7.60
       654    731.148    236.370  36.8508301  -4.5600358   0      3.504  24.8358     7.61
       655    376.649    236.592  36.8692033  -4.5600151   0      3.100  24.2747     6.57
       656    537.643    236.122  36.8608592  -4.5600436   3      7.630  25.1335     8.08
       657    541.424    224.304  36.8606635  -4.5606543   2      3.342  23.7415     5.87
       658    516.028    233.341  36.8619795  -4.5601867   0      2.688  26.4527     4.42
       659    338.304    229.549  36.8711908  -4.5603780   0      3.176  25.0132     6.72
       660    754.634    231.309  36.8496129  -4.5602978   0      2.444  26.2342     5.26
       661    207.851    233.803  36.8779519  -4.5601547   0      2.310  26.2574     5.08
       662    599.398    230.215  36.8576586  -4.5603504   0      3.810  25.5866     6.41
       663    127.913    227.169  36.8820951  -4.5604953   0      3.311  24.8252     7.47
       664    613.058    223.280  36.8569508  -4.5607091   0      3.774  24.3956     9.12
       665    305.870    222.394  36.8728720  -4.5607468   0      4.107  24.7564     7.56
       666    260.635    223.914  36.8752164  -4.5606671   0      2.551  26.7158     5.35
       667    797.500    223.504  36.8473914  -4.5607021   0      2.565  26.9699    -0.52
       668    436.102    218.935  36.8661223  -4.5609289   0      3.097  24.7983     5.98
       669    285.229    210.609  36.8739421  -4.5613551   0      3.579  22.6871     5.94
       670    242.162    213.783  36.8761741  -4.5611900   0      3.734  24.3617     9.15
       671    658.255    210.628  36.8546086  -4.5613639   2      3.997  23.2469     7.80
       672    661.557    194.352  36.8544379  -4.5622048   3      3.361  24.7296     6.63
       673    920.509    214.119  36.8410162  -4.5611900   0      2.684  24.7608     4.86
       674    997.444    213.030  36.8370288  -4.5612482  24      2.730  24.9436     7.42
       675    111.993    216.016  36.8829205  -4.5610711   0      2.372  26.4583     6.02
       676      4.601    206.794  36.8884867  -4.5615446  27      5.212  23.1101    23.25
       677     13.142    176.408  36.8880449  -4.5631147  18      7.266  21.4446    14.39
       678    581.275    213.818  36.8585983  -4.5611971   0      2.742  26.2867     5.96
       679     59.548    211.139  36.8856388  -4.5613216   0      4.571  24.8072     7.53
       680    976.064    209.423  36.8381370  -4.5614340   0      3.442  24.3426     6.30
       681    707.995    211.132  36.8520307  -4.5613391   0      2.137  26.7692     4.97
       682     43.191    211.299  36.8864866  -4.5613129   0      3.342  26.3698     4.91
       683    783.130    210.872  36.8481365  -4.5613544   0      2.426  26.9454     4.52
       684    757.176    208.470  36.8494817  -4.5614779   0      3.433  25.3774     5.48
       685    861.141    207.526  36.8440934  -4.5615292   0      3.170  26.4662     4.86
       686    843.467    199.353  36.8450096  -4.5619511   0      3.882  23.4381     9.41
       687    196.433    204.666  36.8785444  -4.5616598   0      3.612  25.2773     6.10
       688    529.449    203.098  36.8612847  -4.5617496   0      3.243  25.8135     5.75
       689    210.863    199.719  36.8777967  -4.5619158   0      3.494  24.8968     6.29
       690    369.858    195.540  36.8695563  -4.5621359   1      4.205  25.1041     6.75
       691    937.732    196.669  36.8401240  -4.5620920   0      2.604  26.4127     5.91
       692    321.409    193.112  36.8720674  -4.5622601   0      5.170  24.6827     7.31
       693    412.549    193.173  36.8673437  -4.5622593   0      3.159  25.4602     7.19
       694    127.396    189.168  36.8821229  -4.5624586   0      3.604  23.5450     7.54
       695    923.612    193.094  36.8408559  -4.5622764   0      2.352  26.8250     5.30
       696    626.191    186.416  36.8562711  -4.5626140   0      5.415  25.2221    15.48
       697    592.291    189.030  36.8580280  -4.5624781   3      3.348  24.5106     6.96
       698    582.854    186.285  36.8585172  -4.5626196   3      3.297  24.1474     7.17
       699    727.447    185.084  36.8510231  -4.5626854   0      3.407  23.5489     6.32
       700    547.821    191.180  36.8603328  -4.5623659   0      2.408  26.9372     3.93
       701    196.259    189.174  36.8785538  -4.5624602   0      3.966  25.6803     5.91
       702    976.442    187.113  36.8381179  -4.5625867   0      2.789  25.6092     5.18
       703    361.314    169.177  36.8699998  -4.5634978   3      6.849  21.2175    10.63
       704    255.083    186.466  36.8755052  -4.5626016   0      2.834  24.9101     5.32
       705     35.527    188.127  36.8868844  -4.5625099   0      3.085  26.1285     5.95
       706    213.498    177.195  36.8776607  -4.5630795   0      4.024  23.4706     8.95
       707     56.888    182.561  36.8857775  -4.5627980   0      2.260  26.6703     4.86
       708     34.659    179.776  36.8869296  -4.5629413   1      4.963  25.5357     4.76
       709    545.523    179.507  36.8604522  -4.5629689   0      2.547  26.5879     5.56
       710    954.592    174.550  36.8392507  -4.5632352   0      2.954  24.1345     5.38
       711    933.314    176.853  36.8403534  -4.5631157   0      2.777  25.7638     5.55
       712    980.949    171.154  36.8378847  -4.5634114  16      3.808  24.3182     8.11
       713    760.435    174.157  36.8493137  -4.5632507   0      3.396  25.8980     7.44
       714    162.225    170.998  36.8803183  -4.5633983   0      3.264  24.5344     6.36
       715     48.784    169.684  36.8861978  -4.5634631   0      3.889  24.4988     8.33
       716    847.532    157.233  36.8447999  -4.5641273   3      5.195  21.3535     8.74
       717    836.990    141.769  36.8453467  -4.5649260   3      5.739  22.7463    10.40
       718    706.903    171.669  36.8520883  -4.5633780   0      3.055  25.6629     7.01
       719    599.415    172.031  36.8576592  -4.5633565   0      2.645  26.2266     5.59
       720    573.964    162.417  36.8589785  -4.5638526   0      4.421  23.8418    11.29
       721    189.613    160.821  36.8788991  -4.5639249   0      2.864  26.3171     7.70
       722    140.279    157.600  36.8814561  -4.5640899   1      3.848  24.4877     9.44
       723    541.757    159.152  36.8606479  -4.5640204   0      2.664  25.9624     5.97
       724    458.253    153.657  36.8649759  -4.5643021   0      3.168  24.4780     5.93
       725    712.221    155.540  36.8518130  -4.5642114   0      2.369  25.9901     4.98
       726    338.992    170.619  36.8711567  -4.5634226   3      8.015  22.7880    10.37
       727    156.840    152.268  36.8805979  -4.5643658   3      4.183  24.5646     8.44
       728    155.546    141.931  36.8806653  -4.5648999   3      4.202  24.6961    10.08
       729    955.897    146.838  36.8391837  -4.5646670   0      2.762  21.8942     4.72
       730    334.708    147.860  36.8713793  -4.5645984   1      7.508  24.5717     8.37
       731    627.027    149.022  36.8562287  -4.5645460   0      3.322  26.2545     7.41
       732    617.661    148.132  36.8567141  -4.5645918   0      3.257  25.9465     7.41
       733    321.755    160.097  36.8720504  -4.5639658   1      3.625  24.1572     6.43
       734    373.888    141.549  36.8693488  -4.5649255   1      8.647  24.1883    14.25
       735    691.027    136.106  36.8529120  -4.5652150   0      3.785  24.3736     8.74
       736    257.825    136.812  36.8753644  -4.5651671   0      3.938  24.1120    10.26
       737    911.255    136.362  36.8414977  -4.5652072   0      3.296  25.4710     6.10
       738    808.417    132.273  36.8468279  -4.5654159   0      4.206  23.4017     7.71
       739    527.927    135.804  36.8613653  -4.5652263   0      3.127  25.8168     6.50
       740    923.880    135.167  36.8408434  -4.5652692   0      4.591  25.7392     7.80
       741    648.988    136.480  36.8550908  -4.5651945   0      2.471  26.6772     4.99
       742    883.800    135.111  36.8429207  -4.5652711   0      2.812  26.2976     5.07
       743    740.341    128.996  36.8503563  -4.5655835   0      2.925  23.1580     4.90
       744    554.732    135.907  36.8599760  -4.5652217   0      3.505  26.4301     5.39
       745    322.766    128.964  36.8719987  -4.5655744   0      3.346  24.0226     5.67
       746    284.142    130.596  36.8740005  -4.5654890   0      2.785  25.5370     5.25
       747    359.407    127.123  36.8700998  -4.5656704   3      5.524  25.4649     6.82
       748    362.167    118.941  36.8699569  -4.5660933   2      9.355  24.3616     9.22
       749    202.858    123.041  36.8782136  -4.5658771   0      2.999  24.2153     5.39
       750    878.604    122.041  36.8431904  -4.5659463   0      3.267  24.3501     5.82
       751    378.869    124.634  36.8690911  -4.5657996   0      4.056  25.8761     8.39
       752    225.361    121.656  36.8770474  -4.5659493   0      2.693  25.0014     5.31
       753    179.989    123.786  36.8793988  -4.5658380   0      2.449  26.8330     3.60
       754    643.148    121.534  36.8553939  -4.5659666   0      3.271  25.7534     5.21
       755    918.617    119.256  36.8411166  -4.5660912   0      3.214  25.3444     6.57
       756    606.030    114.192  36.8573179  -4.5663449   0      3.018  24.8305     5.99
       757    630.779    112.591  36.8560352  -4.5664283   0      3.149  24.5407     5.85
       758    547.989    113.333  36.8603261  -4.5663878   0      2.996  25.6549     5.46
       759    403.874    111.864  36.8677955  -4.5664600   0      5.010  25.2322     7.39
       760    703.020    110.138  36.8522910  -4.5665569   0      3.423  25.2025     5.88
       761    897.529    984.495  36.8421886  -4.5213874  16      3.297  23.3830     6.87
       762    898.005    129.533  36.8421846  -4.5655597   0      2.237  26.7507     5.14
       763    653.189    110.172  36.8548737  -4.5665539   0      2.590  26.5870     4.73
       764     32.535    102.958  36.8870418  -4.5669100   0      3.388  23.8690     6.83
       765    744.308    106.601  36.8501512  -4.5667407   0      3.758  26.0498     8.55
       766    556.149    101.247  36.8599035  -4.5670125   0      5.461  24.3794    14.86
       767    309.339    988.495  36.8726719  -4.5211658  16      4.323  23.7295     6.29
       768    524.607     99.400  36.8615383  -4.5671071   0      3.554  24.1090     5.35
       769    346.890    102.001  36.8707492  -4.5669680   3      5.082  24.5809     6.53
       770    338.276     99.158  36.8711957  -4.5671147   3      3.583  25.3669     9.02
       771    692.751     99.966  36.8528235  -4.5670822   0      4.045  24.4285     7.54
       772    255.942     99.479  36.8754629  -4.5670959   0      3.819  24.9273    10.79
       773    593.738    101.537  36.8579552  -4.5669985   0      2.426  26.6753     4.34
       774    413.423     98.459  36.8673009  -4.5671528   0      3.560  24.9088     7.17
       775    466.862    100.554  36.8645311  -4.5670460   0      2.487  26.7129     5.01
       776    365.361     94.064  36.8697920  -4.5673786   0      3.503  23.6025     6.49
       777    881.262     97.678  36.8430532  -4.5672051   0      3.343  26.3450     6.40
       778    861.234     95.296  36.8440913  -4.5673277   0      2.782  26.3925     5.12
       779    576.423     94.228  36.8588529  -4.5673757   0      2.706  25.6782     5.11
       780    802.349     90.899  36.8471434  -4.5675534   0      2.509  26.8080     3.01
       781    881.449     84.379  36.8430438  -4.5678922   0      4.094  25.3887     7.14
       782    822.120     84.114  36.8461188  -4.5679044   0      2.779  26.7047     4.53
       783    214.684     79.421  36.8776018  -4.5681311   0      3.335  24.4210     6.78
       784     88.083     82.931  36.8841634  -4.5679463   0      2.765  26.3606     6.26
       785    465.017     81.983  36.8646273  -4.5680054   0      2.236  26.5971     5.24
       786    926.762     81.218  36.8406953  -4.5680566   0      3.077  26.1740     5.63
       787    241.190     78.191  36.8762281  -4.5681954   0      3.568  25.0351     7.68
       788    146.022     79.669  36.8811605  -4.5681164   0      3.162  25.4804     5.98
       789    161.213     74.048  36.8803733  -4.5684073   0      3.020  25.3174     6.35
       790    346.963     69.105  36.8707462  -4.5686676   0      3.466  24.4197     6.50
       791    839.486     72.790  36.8452190  -4.5684899   0      2.624  26.5652     4.97
       792    934.787     67.815  36.8402797  -4.5687493   1      3.827  24.4614     8.66
       793    634.734     70.511  36.8558313  -4.5686025   0      2.220  26.8401     4.39
       794    982.190    989.398  36.8378008  -4.5211362  16      5.047  24.1766    12.22
       795     50.164     69.348  36.8861291  -4.5686470   0      3.409  26.0996     7.89
       796    989.902     66.893  36.8374232  -4.5687983   0      2.349  26.4869     5.26
       797    577.284     59.677  36.8588091  -4.5691608   0      3.292  23.6809     6.21
       798    406.989     64.499  36.8676352  -4.5689072   0      2.670  26.5575     6.23
       799    889.356     63.431  36.8426345  -4.5689747   0      3.879  26.0988     7.46
       800    844.677     58.129  36.8449503  -4.5692475   0      3.501  25.3153     7.89
       801    702.628     58.565  36.8523127  -4.5692214   0      2.497  26.5829     6.70
       802    619.734     57.991  36.8566090  -4.5692489   0      2.402  26.4471     4.77
       803    658.511     56.001  36.8545993  -4.5693528   0      2.885  25.6290     5.45
       804    110.182     55.859  36.8830187  -4.5693456   0      2.809  26.5258     7.01
       805    460.900    993.523  36.8648170  -4.5209100  16      4.426  25.8580     7.98
       806     66.087     48.534  36.8853043  -4.5697228   3      3.845  25.0964     8.46
       807     52.020     47.295  36.8860334  -4.5697864   3      3.945  24.5087     6.57
       808    760.971     47.282  36.8492890  -4.5698058   0      3.800  25.8393     9.43
       809    123.999     50.495  36.8823028  -4.5696231   0      2.818  26.6934     2.96
       810    997.003     43.976  36.8370557  -4.5699825  24      2.846  24.8095     7.91
       811    515.978     45.630  36.8619869  -4.5698849   0      3.123  25.4084     7.30
       812    312.499     44.942  36.8725331  -4.5699151   0      2.503  26.0767     5.47
       813     90.552     46.001  36.8840364  -4.5698544   0      4.648  25.7713     4.88
       814    891.558     40.272  36.8425209  -4.5701713   0      2.673  26.5831     6.50
       815    944.917     37.417  36.8397554  -4.5703200   0      3.592  25.8205     8.41
       816    727.996     39.804  36.8509983  -4.5701914   0      2.998  26.6150     5.12
       817    541.563     36.345  36.8606611  -4.5703653   0      4.958  24.9400    15.24
       818    305.007    112.015  36.8729196  -4.5664496   0      2.560  26.8308     4.79
       819    969.397     34.238  36.8384867  -4.5704849   0      3.183  26.0935     5.80
       820    621.853    988.579  36.8564756  -4.5211696  16      4.918  24.6861    12.38
       821    219.001     35.496  36.8773793  -4.5704006   0      3.456  26.4774     3.76
       822    880.398    989.556  36.8430763  -4.5211255  16      3.333  25.4945     5.73
       823    246.107    989.740  36.8759489  -4.5210998   0      2.552  26.5477     6.08
       824    527.213    988.038  36.8613804  -4.5211952   0      2.638  26.3904     5.60
       825    183.863    987.456  36.8791748  -4.5212162   0      3.572  26.1388     6.17
       826    465.973    980.292  36.8645545  -4.5215938  16      3.933  24.1790     6.28
       827    337.895    977.637  36.8711923  -4.5217276   2      3.463  23.2131     5.76
       828    769.036     21.148  36.8488717  -4.5711562   0      3.403  25.7491     7.23
       829    295.292     17.004  36.8734257  -4.5713581   0      2.184  27.0619     4.26
       830    351.736    964.890  36.8704753  -4.5223866   3      5.019  24.8606    15.19
       831    115.941    983.773  36.8826950  -4.5214046   0      4.032  26.0157     5.67
       832     37.519    985.008  36.8867593  -4.5213387   0      3.134  26.5051     5.14
       833    152.760    979.804  36.8807870  -4.5216107   0      3.747  25.2089     8.59
       834    927.208    982.092  36.8406504  -4.5215123   0      2.540  26.5050     6.31
       835    819.770    981.490  36.8462185  -4.5215408   0      3.746  26.1460     6.96
       836    145.332      7.675  36.8811982  -4.5718360   0      1.984  27.2641     2.54
       837    737.749    993.890  36.8504691  -4.5208981  16      3.664  26.1661     8.02
       838    558.099    976.353  36.8597801  -4.5217996   0      3.154  25.4009     6.55
